LabVIEW Measurement	
Writer_Version	2
Reader_Version	2
Separator	Tab
Decimal_Separator	.
Multi_Headings	No
X_Columns	One
Time_Pref	Absolute
Operator	matthewb
Date	2017/01/30
Time	16:19:08.208694030035044453
***End_of_Header***	
	
Channels	1	
Samples	1	
Date	2017/01/30	
Time	16:19:08.208694030035044453	
Y_Unit_Label	Volts	
X_Dimension	Time	
X0	0.0000000000000000E+0	
Delta_X	0.001000	
***End_of_Header***		
X_Value	Voltage	Comment
0.000000	0.950450
0.001000	0.955603
0.002000	0.955603
0.003000	0.950772
0.004000	0.947873
0.005000	0.948839
0.006000	0.944331
0.007000	0.954314
0.008000	0.953992
0.009000	0.955603
0.010000	0.951416
0.011000	0.951738
0.012000	0.951416
0.013000	0.953992
0.014000	0.954314
0.015000	0.953992
0.016000	0.960111
0.017000	0.954636
0.018000	0.949162
0.019000	0.952382
0.020000	0.950772
0.021000	0.951416
0.022000	0.953348
0.023000	0.955281
0.024000	0.956569
0.025000	0.957213
0.026000	0.952704
0.027000	0.952382
0.028000	0.953026
0.029000	0.953348
0.030000	0.955925
0.031000	0.949162
0.032000	0.959789
0.033000	0.961722
0.034000	0.954314
0.035000	0.954636
0.036000	0.954958
0.037000	0.958823
0.038000	0.954636
0.039000	0.958179
0.040000	0.957213
0.041000	0.957535
0.042000	0.954958
0.043000	0.956247
0.044000	0.957535
0.045000	0.950450
0.046000	0.960433
0.047000	0.965908
0.048000	0.964298
0.049000	0.960755
0.050000	0.960433
0.051000	0.957857
0.052000	0.956247
0.053000	0.958823
0.054000	0.962688
0.055000	0.963332
0.056000	0.964620
0.057000	0.959789
0.058000	0.959145
0.059000	0.960111
0.060000	0.959789
0.061000	0.963976
0.062000	0.961722
0.063000	0.966874
0.064000	0.961399
0.065000	0.960433
0.066000	0.965586
0.067000	0.963010
0.068000	0.967841
0.069000	0.965908
0.070000	0.966874
0.071000	0.971383
0.072000	0.971705
0.073000	0.967196
0.074000	0.969451
0.075000	0.970417
0.076000	0.965264
0.077000	0.965908
0.078000	0.974282
0.079000	0.972671
0.080000	0.971061
0.081000	0.970095
0.082000	0.967518
0.083000	0.970739
0.084000	0.968163
0.085000	0.971705
0.086000	0.975570
0.087000	0.974604
0.088000	0.972027
0.089000	0.963976
0.090000	0.966874
0.091000	0.969451
0.092000	0.967841
0.093000	0.971061
0.094000	0.971705
0.095000	0.970417
0.096000	0.970095
0.097000	0.961077
0.098000	0.964942
0.099000	0.960111
0.100000	0.963976
0.101000	0.965908
0.102000	0.965264
0.103000	0.963654
0.104000	0.955603
0.105000	0.955925
0.106000	0.955603
0.107000	0.953348
0.108000	0.954958
0.109000	0.953670
0.110000	0.952382
0.111000	0.957213
0.112000	0.948195
0.113000	0.947229
0.114000	0.951738
0.115000	0.948195
0.116000	0.952060
0.117000	0.957535
0.118000	0.953992
0.119000	0.953026
0.120000	0.943687
0.121000	0.946907
0.122000	0.950128
0.123000	0.951094
0.124000	0.950772
0.125000	0.954636
0.126000	0.954636
0.127000	0.950128
0.128000	0.950128
0.129000	0.953348
0.130000	0.952704
0.131000	0.954636
0.132000	0.959467
0.133000	0.960433
0.134000	0.961399
0.135000	0.961722
0.136000	0.964942
0.137000	0.966552
0.138000	0.962366
0.139000	0.972349
0.140000	0.974926
0.141000	0.983943
0.142000	0.979112
0.143000	0.985875
0.144000	0.986520
0.145000	0.984909
0.146000	0.991028
0.147000	0.993283
0.148000	1.001656
0.149000	1.004554
0.150000	1.005199
0.151000	1.006809
0.152000	1.009063
0.153000	1.012284
0.154000	1.005843
0.155000	1.012928
0.156000	1.022267
0.157000	1.020335
0.158000	1.017436
0.159000	1.020979
0.160000	1.021945
0.161000	1.020979
0.162000	1.024522
0.163000	1.022589
0.164000	1.028064
0.165000	1.034183
0.166000	1.030319
0.167000	1.030963
0.168000	1.034505
0.169000	1.030319
0.170000	1.033861
0.171000	1.028708
0.172000	1.029674
0.173000	1.031929
0.174000	1.029030
0.175000	1.028386
0.176000	1.026454
0.177000	1.029997
0.178000	1.036115
0.179000	1.029997
0.180000	1.034827
0.181000	1.030641
0.182000	1.028386
0.183000	1.026454
0.184000	1.024200
0.185000	1.020335
0.186000	1.027098
0.187000	1.023555
0.188000	1.023878
0.189000	1.018403
0.190000	1.014860
0.191000	1.013250
0.192000	1.015182
0.193000	1.011640
0.194000	1.009063
0.195000	1.014216
0.196000	1.006809
0.197000	1.003588
0.198000	0.997469
0.199000	0.998757
0.200000	0.994249
0.201000	0.991672
0.202000	0.995537
0.203000	0.989418
0.204000	0.988130
0.205000	0.979112
0.206000	0.983299
0.207000	0.970739
0.208000	0.970739
0.209000	0.972993
0.210000	0.965908
0.211000	0.969773
0.212000	0.971061
0.213000	0.957213
0.214000	0.959145
0.215000	0.962688
0.216000	0.962688
0.217000	0.963654
0.218000	0.970739
0.219000	0.967196
0.220000	0.963976
0.221000	0.962044
0.222000	0.960755
0.223000	0.964620
0.224000	0.957535
0.225000	0.969129
0.226000	0.968163
0.227000	0.965908
0.228000	0.963010
0.229000	0.964942
0.230000	0.963976
0.231000	0.969129
0.232000	0.969773
0.233000	0.967518
0.234000	0.972027
0.235000	0.968485
0.236000	0.966230
0.237000	0.967841
0.238000	0.967841
0.239000	0.966552
0.240000	0.968807
0.241000	0.968807
0.242000	0.969773
0.243000	0.971061
0.244000	0.968485
0.245000	0.966874
0.246000	0.967196
0.247000	0.965586
0.248000	0.969451
0.249000	0.966874
0.250000	0.969451
0.251000	0.967196
0.252000	0.961399
0.253000	0.962688
0.254000	0.963332
0.255000	0.955925
0.256000	0.962044
0.257000	0.963654
0.258000	0.959467
0.259000	0.955603
0.260000	0.955925
0.261000	0.954314
0.262000	0.951738
0.263000	0.947229
0.264000	0.953026
0.265000	0.957857
0.266000	0.955925
0.267000	0.949806
0.268000	0.953026
0.269000	0.949162
0.270000	0.948517
0.271000	0.950128
0.272000	0.949484
0.273000	0.955281
0.274000	0.945619
0.275000	0.940466
0.276000	0.944331
0.277000	0.946263
0.278000	0.942720
0.279000	0.946263
0.280000	0.941754
0.281000	0.942076
0.282000	0.940144
0.283000	0.939500
0.284000	0.927262
0.285000	0.930483
0.286000	0.927584
0.287000	0.925330
0.288000	0.921465
0.289000	0.915990
0.290000	0.909871
0.291000	0.924364
0.292000	0.948195
0.293000	0.990706
0.294000	1.010029
0.295000	1.069609
0.296000	1.106323
0.297000	1.127578
0.298000	1.154953
0.299000	1.189090
0.300000	1.226126
0.301000	1.257043
0.302000	1.286672
0.303000	1.320165
0.304000	1.352048
0.305000	1.386508
0.306000	1.415814
0.307000	1.447053
0.308000	1.477326
0.309000	1.509209
0.310000	1.539482
0.311000	1.450274
0.312000	1.431273
0.313000	1.408407
0.314000	1.389406
0.315000	1.363642
0.316000	1.339810
0.317000	1.313724
0.318000	1.297621
0.319000	1.271857
0.320000	1.258331
0.321000	1.214532
0.322000	1.196497
0.323000	1.158817
0.324000	1.144325
0.325000	1.124358
0.326000	1.089576
0.327000	1.076050
0.328000	1.054472
0.329000	1.026776
0.330000	1.005843
0.331000	0.977502
0.332000	0.956569
0.333000	0.942076
0.334000	0.917923
0.335000	0.905685
0.336000	0.880242
0.337000	0.856733
0.338000	0.856089
0.339000	0.866716
0.340000	0.873157
0.341000	0.873479
0.342000	0.883141
0.343000	0.886361
0.344000	0.889582
0.345000	0.887006
0.346000	0.889582
0.347000	0.897633
0.348000	0.911159
0.349000	0.932737
0.350000	0.943043
0.351000	0.958823
0.352000	0.960111
0.353000	0.959145
0.354000	0.955925
0.355000	0.955925
0.356000	0.956247
0.357000	0.956247
0.358000	0.958179
0.359000	0.960433
0.360000	0.958179
0.361000	0.959467
0.362000	0.959467
0.363000	0.963010
0.364000	0.955603
0.365000	0.963654
0.366000	0.970739
0.367000	0.962688
0.368000	0.963332
0.369000	0.962688
0.370000	0.959789
0.371000	0.959467
0.372000	0.961722
0.373000	0.964298
0.374000	0.965264
0.375000	0.965586
0.376000	0.963010
0.377000	0.963010
0.378000	0.962044
0.379000	0.968485
0.380000	0.967518
0.381000	0.969451
0.382000	0.977180
0.383000	0.972349
0.384000	0.973960
0.385000	0.973960
0.386000	0.972027
0.387000	0.975248
0.388000	0.983943
0.389000	0.987486
0.390000	0.992961
0.391000	0.995215
0.392000	0.998435
0.393000	0.998113
0.394000	1.001334
0.395000	1.003588
0.396000	1.007453
0.397000	1.013250
0.398000	1.011318
0.399000	1.020335
0.400000	1.020335
0.401000	1.022267
0.402000	1.021301
0.403000	1.015826
0.404000	1.025810
0.405000	1.029997
0.406000	1.029997
0.407000	1.032573
0.408000	1.027098
0.409000	1.037082
0.410000	1.035149
0.411000	1.037726
0.412000	1.039658
0.413000	1.040624
0.414000	1.049320
0.415000	1.043201
0.416000	1.049964
0.417000	1.049642
0.418000	1.053828
0.419000	1.058659
0.420000	1.055117
0.421000	1.065100
0.422000	1.063490
0.423000	1.059303
0.424000	1.069609
0.425000	1.063490
0.426000	1.066710
0.427000	1.068965
0.428000	1.073473
0.429000	1.076372
0.430000	1.078304
0.431000	1.073796
0.432000	1.071863
0.433000	1.073796
0.434000	1.078626
0.435000	1.083779
0.436000	1.086033
0.437000	1.082813
0.438000	1.082813
0.439000	1.081203
0.440000	1.084423
0.441000	1.083779
0.442000	1.081203
0.443000	1.085067
0.444000	1.090864
0.445000	1.090864
0.446000	1.085067
0.447000	1.086033
0.448000	1.077982
0.449000	1.082813
0.450000	1.082813
0.451000	1.085389
0.452000	1.086356
0.453000	1.085389
0.454000	1.077982
0.455000	1.078948
0.456000	1.082813
0.457000	1.079592
0.458000	1.081525
0.459000	1.084101
0.460000	1.076694
0.461000	1.076372
0.462000	1.072185
0.463000	1.076694
0.464000	1.075406
0.465000	1.068965
0.466000	1.069609
0.467000	1.071863
0.468000	1.070897
0.469000	1.067999
0.470000	1.059947
0.471000	1.058981
0.472000	1.058981
0.473000	1.052540
0.474000	1.056083
0.475000	1.064778
0.476000	1.053828
0.477000	1.050608
0.478000	1.042234
0.479000	1.040946
0.480000	1.038048
0.481000	1.036115
0.482000	1.034183
0.483000	1.035793
0.484000	1.034183
0.485000	1.024200
0.486000	1.026454
0.487000	1.019369
0.488000	1.016148
0.489000	1.015182
0.490000	1.011962
0.491000	1.009385
0.492000	1.010029
0.493000	1.002300
0.494000	1.002944
0.495000	0.994893
0.496000	0.994893
0.497000	1.001012
0.498000	0.996181
0.499000	0.996503
0.500000	0.989740
0.501000	0.987164
0.502000	0.977824
0.503000	0.977824
0.504000	0.964942
0.505000	0.969129
0.506000	0.979756
0.507000	0.966552
0.508000	0.962688
0.509000	0.961077
0.510000	0.957213
0.511000	0.960755
0.512000	0.959789
0.513000	0.963976
0.514000	0.964298
0.515000	0.962688
0.516000	0.961077
0.517000	0.959145
0.518000	0.961722
0.519000	0.965908
0.520000	0.962366
0.521000	0.965586
0.522000	0.962044
0.523000	0.968163
0.524000	0.967196
0.525000	0.964942
0.526000	0.964942
0.527000	0.967196
0.528000	0.964620
0.529000	0.966230
0.530000	0.971061
0.531000	0.966552
0.532000	0.966874
0.533000	0.969451
0.534000	0.971061
0.535000	0.967518
0.536000	0.970739
0.537000	0.972993
0.538000	0.970095
0.539000	0.968485
0.540000	0.970417
0.541000	0.968485
0.542000	0.970417
0.543000	0.959145
0.544000	0.972993
0.545000	0.979756
0.546000	0.975892
0.547000	0.970739
0.548000	0.969451
0.549000	0.972349
0.550000	0.971061
0.551000	0.967841
0.552000	0.970095
0.553000	0.966874
0.554000	0.970739
0.555000	0.963010
0.556000	0.964620
0.557000	0.963332
0.558000	0.959789
0.559000	0.961077
0.560000	0.962366
0.561000	0.962366
0.562000	0.960433
0.563000	0.956891
0.564000	0.958823
0.565000	0.955603
0.566000	0.954958
0.567000	0.954958
0.568000	0.953992
0.569000	0.960755
0.570000	0.954958
0.571000	0.949162
0.572000	0.949806
0.573000	0.953026
0.574000	0.945619
0.575000	0.947873
0.576000	0.957857
0.577000	0.953348
0.578000	0.952382
0.579000	0.949806
0.580000	0.949484
0.581000	0.949806
0.582000	0.950128
0.583000	0.952704
0.584000	0.955603
0.585000	0.956569
0.586000	0.948839
0.587000	0.949162
0.588000	0.951738
0.589000	0.947229
0.590000	0.947551
0.591000	0.951738
0.592000	0.951738
0.593000	0.952060
0.594000	0.949162
0.595000	0.952060
0.596000	0.950772
0.597000	0.956891
0.598000	0.953348
0.599000	0.953670
0.600000	0.954314
0.601000	0.952382
0.602000	0.948839
0.603000	0.953026
0.604000	0.949806
0.605000	0.947551
0.606000	0.950450
0.607000	0.952704
0.608000	0.953348
0.609000	0.956247
0.610000	0.952060
0.611000	0.948839
0.612000	0.950772
0.613000	0.947229
0.614000	0.947551
0.615000	0.961077
0.616000	0.958179
0.617000	0.952060
0.618000	0.951416
0.619000	0.951416
0.620000	0.952704
0.621000	0.951094
0.622000	0.954314
0.623000	0.956891
0.624000	0.952704
0.625000	0.950772
0.626000	0.951094
0.627000	0.952060
0.628000	0.950772
0.629000	0.954958
0.630000	0.957857
0.631000	0.958501
0.632000	0.957535
0.633000	0.949806
0.634000	0.956247
0.635000	0.953670
0.636000	0.950128
0.637000	0.952382
0.638000	0.955603
0.639000	0.957857
0.640000	0.957535
0.641000	0.949806
0.642000	0.952704
0.643000	0.953670
0.644000	0.952382
0.645000	0.956247
0.646000	0.958823
0.647000	0.954636
0.648000	0.958823
0.649000	0.956247
0.650000	0.954958
0.651000	0.955603
0.652000	0.954314
0.653000	0.959145
0.654000	0.959467
0.655000	0.961399
0.656000	0.956247
0.657000	0.953670
0.658000	0.961722
0.659000	0.956891
0.660000	0.957857
0.661000	0.957213
0.662000	0.962366
0.663000	0.964620
0.664000	0.957857
0.665000	0.960755
0.666000	0.956569
0.667000	0.962366
0.668000	0.961722
0.669000	0.962366
0.670000	0.963332
0.671000	0.966552
0.672000	0.962688
0.673000	0.962688
0.674000	0.962366
0.675000	0.959145
0.676000	0.963332
0.677000	0.965908
0.678000	0.971061
0.679000	0.969773
0.680000	0.965586
0.681000	0.966230
0.682000	0.970095
0.683000	0.959145
0.684000	0.963654
0.685000	0.975570
0.686000	0.967196
0.687000	0.967518
0.688000	0.966230
0.689000	0.966874
0.690000	0.967518
0.691000	0.964298
0.692000	0.969451
0.693000	0.973315
0.694000	0.971383
0.695000	0.971061
0.696000	0.971705
0.697000	0.970095
0.698000	0.970095
0.699000	0.976214
0.700000	0.971383
0.701000	0.971383
0.702000	0.968807
0.703000	0.970095
0.704000	0.965908
0.705000	0.968485
0.706000	0.966552
0.707000	0.966230
0.708000	0.964620
0.709000	0.966874
0.710000	0.968807
0.711000	0.962688
0.712000	0.960111
0.713000	0.962366
0.714000	0.963654
0.715000	0.962366
0.716000	0.963654
0.717000	0.958179
0.718000	0.958501
0.719000	0.955925
0.720000	0.952382
0.721000	0.952382
0.722000	0.949484
0.723000	0.953670
0.724000	0.960755
0.725000	0.952382
0.726000	0.948517
0.727000	0.946263
0.728000	0.946907
0.729000	0.949806
0.730000	0.947229
0.731000	0.954314
0.732000	0.958823
0.733000	0.953348
0.734000	0.951738
0.735000	0.953026
0.736000	0.950128
0.737000	0.948839
0.738000	0.951416
0.739000	0.949162
0.740000	0.956569
0.741000	0.955603
0.742000	0.951094
0.743000	0.946263
0.744000	0.952060
0.745000	0.951738
0.746000	0.950450
0.747000	0.950772
0.748000	0.955603
0.749000	0.955603
0.750000	0.950772
0.751000	0.950772
0.752000	0.951094
0.753000	0.947873
0.754000	0.951738
0.755000	0.958501
0.756000	0.953670
0.757000	0.953026
0.758000	0.949806
0.759000	0.950450
0.760000	0.949162
0.761000	0.945619
0.762000	0.952382
0.763000	0.957535
0.764000	0.955603
0.765000	0.952382
0.766000	0.950772
0.767000	0.952060
0.768000	0.953670
0.769000	0.952382
0.770000	0.951738
0.771000	0.955925
0.772000	0.954314
0.773000	0.953670
0.774000	0.951738
0.775000	0.949162
0.776000	0.953026
0.777000	0.952060
0.778000	0.953026
0.779000	0.957535
0.780000	0.956891
0.781000	0.952704
0.782000	0.950450
0.783000	0.951738
0.784000	0.952382
0.785000	0.951738
0.786000	0.955925
0.787000	0.953992
0.788000	0.954958
0.789000	0.950772
0.790000	0.951094
0.791000	0.952382
0.792000	0.953670
0.793000	0.957857
0.794000	0.961722
0.795000	0.958823
0.796000	0.952382
0.797000	0.957857
0.798000	0.955281
0.799000	0.958823
0.800000	0.953670
0.801000	0.956569
0.802000	0.961077
0.803000	0.957535
0.804000	0.956247
0.805000	0.954958
0.806000	0.958501
0.807000	0.960111
0.808000	0.952060
0.809000	0.955925
0.810000	0.958501
0.811000	0.961399
0.812000	0.958823
0.813000	0.954958
0.814000	0.963654
0.815000	0.961077
0.816000	0.962688
0.817000	0.963976
0.818000	0.961077
0.819000	0.965586
0.820000	0.959467
0.821000	0.957535
0.822000	0.960111
0.823000	0.957213
0.824000	0.962688
0.825000	0.968485
0.826000	0.963976
0.827000	0.962044
0.828000	0.966874
0.829000	0.961722
0.830000	0.965908
0.831000	0.963332
0.832000	0.967518
0.833000	0.971061
0.834000	0.966874
0.835000	0.967518
0.836000	0.966230
0.837000	0.964620
0.838000	0.967841
0.839000	0.969773
0.840000	0.968163
0.841000	0.971383
0.842000	0.970417
0.843000	0.969451
0.844000	0.969129
0.845000	0.970417
0.846000	0.971383
0.847000	0.971383
0.848000	0.970095
0.849000	0.976214
0.850000	0.976214
0.851000	0.970739
0.852000	0.971705
0.853000	0.969451
0.854000	0.972027
0.855000	0.972027
0.856000	0.969129
0.857000	0.968485
0.858000	0.968807
0.859000	0.963976
0.860000	0.960111
0.861000	0.964620
0.862000	0.958501
0.863000	0.965586
0.864000	0.972027
0.865000	0.966230
0.866000	0.963332
0.867000	0.961399
0.868000	0.957213
0.869000	0.962688
0.870000	0.953348
0.871000	0.957857
0.872000	0.958179
0.873000	0.957535
0.874000	0.952382
0.875000	0.953670
0.876000	0.949806
0.877000	0.953026
0.878000	0.956247
0.879000	0.947551
0.880000	0.953670
0.881000	0.951094
0.882000	0.951416
0.883000	0.952382
0.884000	0.952060
0.885000	0.951416
0.886000	0.953026
0.887000	0.954958
0.888000	0.952382
0.889000	0.953348
0.890000	0.952060
0.891000	0.946585
0.892000	0.950772
0.893000	0.949162
0.894000	0.953670
0.895000	0.958823
0.896000	0.953992
0.897000	0.952704
0.898000	0.950772
0.899000	0.951094
0.900000	0.953026
0.901000	0.952382
0.902000	0.953992
0.903000	0.954958
0.904000	0.953348
0.905000	0.950772
0.906000	0.950450
0.907000	0.950450
0.908000	0.949162
0.909000	0.951416
0.910000	0.953348
0.911000	0.956247
0.912000	0.957535
0.913000	0.950772
0.914000	0.953992
0.915000	0.952382
0.916000	0.951094
0.917000	0.955281
0.918000	0.953670
0.919000	0.958179
0.920000	0.954958
0.921000	0.949162
0.922000	0.952382
0.923000	0.951738
0.924000	0.951416
0.925000	0.948517
0.926000	0.952382
0.927000	0.955281
0.928000	0.955603
0.929000	0.950128
0.930000	0.953348
0.931000	0.953026
0.932000	0.948517
0.933000	0.954314
0.934000	0.958823
0.935000	0.956569
0.936000	0.953026
0.937000	0.952382
0.938000	0.953026
0.939000	0.955925
0.940000	0.953348
0.941000	0.951094
0.942000	0.956247
0.943000	0.952704
0.944000	0.953992
0.945000	0.953026
0.946000	0.952060
0.947000	0.953992
0.948000	0.955281
0.949000	0.957857
0.950000	0.962044
0.951000	0.957535
0.952000	0.953992
0.953000	0.953992
0.954000	0.958501
0.955000	0.955925
0.956000	0.957213
0.957000	0.958179
0.958000	0.956891
0.959000	0.957535
0.960000	0.956247
0.961000	0.955603
0.962000	0.961399
0.963000	0.958823
0.964000	0.963010
0.965000	0.966230
0.966000	0.962044
0.967000	0.960755
0.968000	0.954958
0.969000	0.959467
0.970000	0.959145
0.971000	0.956569
0.972000	0.962688
0.973000	0.965908
0.974000	0.960755
0.975000	0.960111
0.976000	0.957535
0.977000	0.961722
0.978000	0.958179
0.979000	0.959145
0.980000	0.962688
0.981000	0.966874
0.982000	0.965264
0.983000	0.961722
0.984000	0.963976
0.985000	0.964620
0.986000	0.967518
0.987000	0.966874
0.988000	0.970739
0.989000	0.967841
0.990000	0.968807
0.991000	0.963654
0.992000	0.963976
0.993000	0.968485
0.994000	0.967196
0.995000	0.972349
0.996000	0.968807
0.997000	0.973315
0.998000	0.970095
0.999000	0.971061
1.000000	0.972349
1.001000	0.972027
1.002000	0.967841
1.003000	0.970095
1.004000	0.976536
1.005000	0.973637
1.006000	0.970417
1.007000	0.966230
1.008000	0.966874
1.009000	0.964942
1.010000	0.968807
1.011000	0.968485
1.012000	0.972349
1.013000	0.969451
1.014000	0.965908
1.015000	0.968163
1.016000	0.964298
1.017000	0.964298
1.018000	0.963010
1.019000	0.961077
1.020000	0.962366
1.021000	0.959789
1.022000	0.955603
1.023000	0.954636
1.024000	0.951416
1.025000	0.954636
1.026000	0.957213
1.027000	0.955925
